## w(eV)         sigma(Sm^-1)     kappa(W(mK)^-1)        L12/e(Am^-1)      L22/e^2(Wm^-1)
    0.01              361081             570.914        -7.27616e+06         2.00706e+08
    0.03              361078             570.907        -7.27611e+06         2.00705e+08
    0.05              361071             570.893        -7.27602e+06         2.00703e+08
    0.07              361061             570.872        -7.27588e+06         2.00699e+08
    0.09              361048             570.844        -7.27569e+06         2.00694e+08
    0.11              361032             570.809        -7.27546e+06         2.00688e+08
    0.13              361013             570.767        -7.27517e+06          2.0068e+08
    0.15              360990             570.717        -7.27485e+06         2.00672e+08
    0.17              360964             570.661        -7.27447e+06         2.00662e+08
    0.19              360935             570.598        -7.27405e+06         2.00651e+08
    0.21              360902             570.528        -7.27358e+06         2.00639e+08
    0.23              360866             570.451        -7.27307e+06         2.00625e+08
    0.25              360827             570.366         -7.2725e+06          2.0061e+08
    0.27              360785             570.275         -7.2719e+06         2.00594e+08
    0.29              360739             570.177        -7.27124e+06         2.00577e+08
    0.31              360691             570.072        -7.27054e+06         2.00558e+08
    0.33              360639              569.96        -7.26979e+06         2.00539e+08
    0.35              360583              569.84        -7.26899e+06         2.00518e+08
    0.37              360525             569.714        -7.26815e+06         2.00496e+08
    0.39              360463             569.581        -7.26726e+06         2.00472e+08
    0.41              360398             569.441        -7.26632e+06         2.00447e+08
    0.43              360330             569.294        -7.26533e+06         2.00422e+08
    0.45              360259              569.14         -7.2643e+06         2.00394e+08
    0.47              360184             568.979        -7.26322e+06         2.00366e+08
    0.49              360106             568.811         -7.2621e+06         2.00336e+08
    0.51              360025             568.636        -7.26092e+06         2.00306e+08
    0.53              359940             568.454         -7.2597e+06         2.00273e+08
    0.55              359853             568.266        -7.25844e+06          2.0024e+08
    0.57              359762              568.07        -7.25712e+06         2.00205e+08
    0.59              359668             567.868        -7.25576e+06          2.0017e+08
    0.61              359570             567.658        -7.25435e+06         2.00133e+08
    0.63              359470             567.442         -7.2529e+06         2.00094e+08
    0.65              359366             567.219        -7.25139e+06         2.00055e+08
    0.67              359259             566.989        -7.24984e+06         2.00014e+08
    0.69              359149             566.752        -7.24824e+06         1.99972e+08
    0.71              359036             566.508         -7.2466e+06         1.99929e+08
    0.73              358919             566.258        -7.24491e+06         1.99884e+08
    0.75              358799                 566        -7.24317e+06         1.99838e+08
    0.77              358676             565.736        -7.24138e+06         1.99791e+08
    0.79              358550             565.465        -7.23955e+06         1.99743e+08
    0.81              358420             565.187        -7.23766e+06         1.99694e+08
    0.83              358287             564.903        -7.23573e+06         1.99643e+08
    0.85              358152             564.612        -7.23376e+06         1.99591e+08
    0.87              358012             564.314        -7.23173e+06         1.99537e+08
    0.89              357870             564.009        -7.22966e+06         1.99483e+08
    0.91              357725             563.697        -7.22754e+06         1.99427e+08
    0.93              357576             563.379        -7.22537e+06          1.9937e+08
    0.95              357424             563.054        -7.22316e+06         1.99312e+08
    0.97              357269             562.722         -7.2209e+06         1.99252e+08
    0.99              357111             562.384        -7.21859e+06         1.99192e+08
    1.01              356949             562.039        -7.21623e+06         1.99129e+08
    1.03              356785             561.688        -7.21382e+06         1.99066e+08
    1.05              356617             561.329        -7.21137e+06         1.99002e+08
    1.07              356446             560.965        -7.20886e+06         1.98936e+08
    1.09              356272             560.593        -7.20631e+06         1.98869e+08
    1.11              356094             560.215        -7.20372e+06           1.988e+08
    1.13              355914             559.831        -7.20107e+06         1.98731e+08
    1.15              355730              559.44        -7.19838e+06          1.9866e+08
    1.17              355544             559.042        -7.19564e+06         1.98588e+08
    1.19              355354             558.638        -7.19285e+06         1.98514e+08
    1.21              355160             558.227        -7.19001e+06          1.9844e+08
    1.23              354964              557.81        -7.18712e+06         1.98364e+08
    1.25              354765             557.387        -7.18419e+06         1.98286e+08
    1.27              354562             556.957         -7.1812e+06         1.98208e+08
    1.29              354357              556.52        -7.17817e+06         1.98128e+08
    1.31              354148             556.077        -7.17509e+06         1.98047e+08
    1.33              353936             555.628        -7.17196e+06         1.97965e+08
    1.35              353721             555.173        -7.16879e+06         1.97881e+08
    1.37              353503             554.711        -7.16556e+06         1.97796e+08
    1.39              353281             554.242        -7.16229e+06          1.9771e+08
    1.41              353057             553.768        -7.15896e+06         1.97623e+08
    1.43              352829             553.287        -7.15559e+06         1.97534e+08
    1.45              352599               552.8        -7.15217e+06         1.97444e+08
    1.47              352365             552.307        -7.14871e+06         1.97353e+08
    1.49              352128             551.807        -7.14519e+06          1.9726e+08
    1.51              351888             551.302        -7.14162e+06         1.97167e+08
    1.53              351645              550.79        -7.13801e+06         1.97071e+08
    1.55              351399             550.272        -7.13434e+06         1.96975e+08
    1.57              351150             549.747        -7.13063e+06         1.96877e+08
    1.59              350897             549.217        -7.12687e+06         1.96778e+08
    1.61              350642             548.681        -7.12306e+06         1.96678e+08
    1.63              350384             548.138         -7.1192e+06         1.96577e+08
    1.65              350122              547.59        -7.11529e+06         1.96474e+08
    1.67              349858             547.035        -7.11133e+06          1.9637e+08
    1.69              349590             546.475        -7.10732e+06         1.96264e+08
    1.71              349319             545.909        -7.10327e+06         1.96157e+08
    1.73              349046             545.336        -7.09916e+06         1.96049e+08
    1.75              348769             544.758          -7.095e+06          1.9594e+08
    1.77              348489             544.174         -7.0908e+06         1.95829e+08
    1.79              348206             543.584        -7.08655e+06         1.95717e+08
    1.81              347920             542.988        -7.08224e+06         1.95604e+08
    1.83              347632             542.386        -7.07789e+06          1.9549e+08
    1.85              347340             541.778        -7.07349e+06         1.95374e+08
    1.87              347045             541.165        -7.06903e+06         1.95257e+08
    1.89              346747             540.546        -7.06453e+06         1.95138e+08
    1.91              346446             539.921        -7.05998e+06         1.95018e+08
    1.93              346142             539.291        -7.05538e+06         1.94897e+08
    1.95              345835             538.655        -7.05072e+06         1.94775e+08
    1.97              345525             538.013        -7.04602e+06         1.94651e+08
    1.99              345213             537.366        -7.04127e+06         1.94526e+08
    2.01              344897             536.713        -7.03647e+06           1.944e+08
    2.03              344578             536.055        -7.03162e+06         1.94272e+08
    2.05              344256             535.391        -7.02672e+06         1.94143e+08
    2.07              343932             534.721        -7.02177e+06         1.94013e+08
    2.09              343604             534.047        -7.01676e+06         1.93882e+08
    2.11              343273             533.366        -7.01171e+06         1.93749e+08
    2.13              342940             532.681        -7.00661e+06         1.93614e+08
    2.15              342603              531.99        -7.00146e+06         1.93479e+08
    2.17              342264             531.293        -6.99626e+06         1.93342e+08
    2.19              341922             530.591          -6.991e+06         1.93204e+08
    2.21              341576             529.884         -6.9857e+06         1.93064e+08
    2.23              341228             529.172        -6.98035e+06         1.92923e+08
    2.25              340877             528.455        -6.97494e+06         1.92781e+08
    2.27              340523             527.732        -6.96949e+06         1.92638e+08
    2.29              340167             527.004        -6.96398e+06         1.92493e+08
    2.31              339807             526.271        -6.95843e+06         1.92347e+08
    2.33              339444             525.533        -6.95282e+06         1.92199e+08
    2.35              339079              524.79        -6.94716e+06         1.92051e+08
    2.37              338711             524.042        -6.94146e+06           1.919e+08
    2.39              338339             523.288         -6.9357e+06         1.91749e+08
    2.41              337965              522.53        -6.92989e+06         1.91596e+08
    2.43              337589             521.767        -6.92403e+06         1.91442e+08
    2.45              337209             520.999        -6.91812e+06         1.91287e+08
    2.47              336826             520.226        -6.91216e+06          1.9113e+08
    2.49              336441             519.449        -6.90615e+06         1.90972e+08
    2.51              336053             518.666        -6.90008e+06         1.90812e+08
    2.53              335662             517.879        -6.89397e+06         1.90651e+08
    2.55              335268             517.087         -6.8878e+06         1.90489e+08
    2.57              334872              516.29        -6.88159e+06         1.90326e+08
    2.59              334472             515.488        -6.87532e+06         1.90161e+08
    2.61              334070             514.682          -6.869e+06         1.89995e+08
    2.63              333665             513.872        -6.86263e+06         1.89827e+08
    2.65              333258             513.056        -6.85621e+06         1.89658e+08
    2.67              332847             512.237        -6.84974e+06         1.89488e+08
    2.69              332434             511.412        -6.84322e+06         1.89316e+08
    2.71              332018             510.583        -6.83665e+06         1.89144e+08
    2.73              331600              509.75        -6.83002e+06         1.88969e+08
    2.75              331178             508.913        -6.82335e+06         1.88794e+08
    2.77              330754             508.071        -6.81662e+06         1.88617e+08
    2.79              330327             507.224        -6.80984e+06         1.88439e+08
    2.81              329898             506.374        -6.80301e+06         1.88259e+08
    2.83              329466             505.519        -6.79613e+06         1.88078e+08
    2.85              329031              504.66         -6.7892e+06         1.87896e+08
    2.87              328593             503.796        -6.78222e+06         1.87712e+08
    2.89              328153             502.929        -6.77518e+06         1.87527e+08
    2.91              327710             502.057         -6.7681e+06         1.87341e+08
    2.93              327264             501.182        -6.76096e+06         1.87153e+08
    2.95              326816             500.302        -6.75377e+06         1.86964e+08
    2.97              326365             499.418        -6.74653e+06         1.86774e+08
    2.99              325912              498.53        -6.73924e+06         1.86582e+08
    3.01              325456             497.639         -6.7319e+06         1.86389e+08
    3.03              324997             496.743        -6.72451e+06         1.86194e+08
    3.05              324536             495.844        -6.71706e+06         1.85998e+08
    3.07              324072              494.94        -6.70956e+06         1.85801e+08
    3.09              323605             494.033        -6.70202e+06         1.85603e+08
    3.11              323136             493.123        -6.69442e+06         1.85403e+08
    3.13              322665             492.208        -6.68677e+06         1.85202e+08
    3.15              322190              491.29        -6.67907e+06         1.84999e+08
    3.17              321714             490.368        -6.67131e+06         1.84796e+08
    3.19              321234             489.443        -6.66351e+06          1.8459e+08
    3.21              320753             488.514        -6.65565e+06         1.84384e+08
    3.23              320268             487.581        -6.64775e+06         1.84176e+08
    3.25              319781             486.645        -6.63979e+06         1.83967e+08
    3.27              319292             485.706        -6.63178e+06         1.83756e+08
    3.29              318800             484.763        -6.62372e+06         1.83544e+08
    3.31              318306             483.817        -6.61561e+06         1.83331e+08
    3.33              317809             482.867        -6.60744e+06         1.83116e+08
    3.35              317309             481.914        -6.59923e+06           1.829e+08
    3.37              316807             480.958        -6.59097e+06         1.82683e+08
    3.39              316303             479.998        -6.58265e+06         1.82464e+08
    3.41              315797             479.036        -6.57428e+06         1.82244e+08
    3.43              315287              478.07        -6.56586e+06         1.82023e+08
    3.45              314776             477.101        -6.55739e+06           1.818e+08
    3.47              314262             476.129        -6.54887e+06         1.81576e+08
    3.49              313745             475.154         -6.5403e+06         1.81351e+08
    3.51              313227             474.176        -6.53168e+06         1.81124e+08
    3.53              312705             473.195        -6.52301e+06         1.80896e+08
    3.55              312182             472.211        -6.51428e+06         1.80667e+08
    3.57              311656             471.225        -6.50551e+06         1.80436e+08
    3.59              311128             470.235        -6.49668e+06         1.80204e+08
    3.61              310597             469.243        -6.48781e+06         1.79971e+08
    3.63              310064             468.248        -6.47888e+06         1.79736e+08
    3.65              309529              467.25         -6.4699e+06           1.795e+08
    3.67              308991             466.249        -6.46087e+06         1.79263e+08
    3.69              308451             465.246         -6.4518e+06         1.79024e+08
    3.71              307909              464.24        -6.44267e+06         1.78785e+08
    3.73              307365             463.232        -6.43349e+06         1.78543e+08
    3.75              306818             462.221        -6.42426e+06         1.78301e+08
    3.77              306269             461.207        -6.41498e+06         1.78057e+08
    3.79              305718             460.191        -6.40565e+06         1.77812e+08
    3.81              305164             459.173        -6.39627e+06         1.77565e+08
    3.83              304608             458.152        -6.38684e+06         1.77317e+08
    3.85              304050             457.129        -6.37736e+06         1.77068e+08
    3.87              303490             456.104        -6.36783e+06         1.76818e+08
    3.89              302928             455.076        -6.35824e+06         1.76566e+08
    3.91              302363             454.046        -6.34861e+06         1.76313e+08
    3.93              301796             453.014        -6.33893e+06         1.76058e+08
    3.95              301227              451.98        -6.32921e+06         1.75803e+08
    3.97              300656             450.944        -6.31943e+06         1.75546e+08
    3.99              300083             449.905         -6.3096e+06         1.75287e+08
    4.01              299508             448.865        -6.29972e+06         1.75028e+08
    4.03              298930             447.823        -6.28979e+06         1.74767e+08
    4.05              298351             446.778        -6.27982e+06         1.74505e+08
    4.07              297769             445.732        -6.26979e+06         1.74241e+08
    4.09              297185             444.684        -6.25971e+06         1.73977e+08
    4.11              296599             443.634        -6.24959e+06         1.73711e+08
    4.13              296011             442.582        -6.23942e+06         1.73443e+08
    4.15              295421             441.528         -6.2292e+06         1.73175e+08
    4.17              294829             440.473        -6.21893e+06         1.72905e+08
    4.19              294235             439.416        -6.20861e+06         1.72634e+08
    4.21              293639             438.357        -6.19824e+06         1.72361e+08
    4.23              293041             437.297        -6.18783e+06         1.72088e+08
    4.25              292441             436.235        -6.17736e+06         1.71813e+08
    4.27              291839             435.172        -6.16685e+06         1.71537e+08
    4.29              291235             434.107        -6.15629e+06         1.71259e+08
    4.31              290629              433.04        -6.14569e+06         1.70981e+08
    4.33              290021             431.973        -6.13503e+06         1.70701e+08
    4.35              289411             430.903        -6.12433e+06          1.7042e+08
    4.37              288799             429.833        -6.11358e+06         1.70137e+08
    4.39              288185             428.761        -6.10278e+06         1.69854e+08
    4.41              287570             427.688        -6.09194e+06         1.69569e+08
    4.43              286952             426.613        -6.08105e+06         1.69283e+08
    4.45              286333             425.538        -6.07011e+06         1.68995e+08
    4.47              285712             424.461        -6.05912e+06         1.68707e+08
    4.49              285089             423.383        -6.04809e+06         1.68417e+08
    4.51              284464             422.304        -6.03701e+06         1.68126e+08
    4.53              283837             421.224        -6.02589e+06         1.67834e+08
    4.55              283208             420.143        -6.01472e+06         1.67541e+08
    4.57              282578             419.061         -6.0035e+06         1.67246e+08
    4.59              281946             417.977        -5.99224e+06          1.6695e+08
    4.61              281312             416.893        -5.98093e+06         1.66653e+08
    4.63              280676             415.809        -5.96958e+06         1.66355e+08
    4.65              280039             414.723        -5.95818e+06         1.66056e+08
    4.67              279399             413.636        -5.94673e+06         1.65755e+08
    4.69              278758             412.549        -5.93525e+06         1.65453e+08
    4.71              278116             411.461        -5.92371e+06          1.6515e+08
    4.73              277471             410.372        -5.91213e+06         1.64846e+08
    4.75              276825             409.283        -5.90051e+06         1.64541e+08
    4.77              276178             408.193        -5.88884e+06         1.64235e+08
    4.79              275528             407.102        -5.87713e+06         1.63927e+08
    4.81              274877             406.011        -5.86537e+06         1.63619e+08
    4.83              274225             404.919        -5.85357e+06         1.63309e+08
    4.85              273571             403.827        -5.84173e+06         1.62998e+08
    4.87              272915             402.734        -5.82984e+06         1.62686e+08
    4.89              272257             401.641        -5.81791e+06         1.62372e+08
    4.91              271598             400.547        -5.80594e+06         1.62058e+08
    4.93              270938             399.453        -5.79392e+06         1.61743e+08
    4.95              270276             398.359        -5.78186e+06         1.61426e+08
    4.97              269612             397.265        -5.76976e+06         1.61108e+08
    4.99              268947              396.17        -5.75762e+06         1.60789e+08
    5.01              268280             395.075        -5.74543e+06         1.60469e+08
    5.03              267612             393.979        -5.73321e+06         1.60148e+08
    5.05              266942             392.884        -5.72094e+06         1.59826e+08
    5.07              266271             391.788        -5.70863e+06         1.59503e+08
    5.09              265599             390.693        -5.69628e+06         1.59179e+08
    5.11              264925             389.597        -5.68389e+06         1.58854e+08
    5.13              264249             388.501        -5.67145e+06         1.58527e+08
    5.15              263573             387.406        -5.65898e+06           1.582e+08
    5.17              262894              386.31        -5.64647e+06         1.57871e+08
    5.19              262215             385.214        -5.63391e+06         1.57542e+08
    5.21              261534             384.118        -5.62132e+06         1.57211e+08
    5.23              260851             383.023        -5.60869e+06          1.5688e+08
    5.25              260168             381.928        -5.59602e+06         1.56547e+08
    5.27              259483             380.833        -5.58331e+06         1.56214e+08
    5.29              258797             379.738        -5.57056e+06         1.55879e+08
    5.31              258109             378.643        -5.55777e+06         1.55543e+08
    5.33              257420             377.548        -5.54494e+06         1.55207e+08
    5.35              256730             376.454        -5.53208e+06         1.54869e+08
    5.37              256039             375.361        -5.51917e+06          1.5453e+08
    5.39              255346             374.267        -5.50623e+06         1.54191e+08
    5.41              254652             373.174        -5.49326e+06          1.5385e+08
    5.43              253957             372.081        -5.48024e+06         1.53509e+08
    5.45              253261             370.989        -5.46719e+06         1.53166e+08
    5.47              252564             369.898        -5.45411e+06         1.52823e+08
    5.49              251865             368.806        -5.44098e+06         1.52478e+08
    5.51              251165             367.716        -5.42782e+06         1.52133e+08
    5.53              250465             366.626        -5.41463e+06         1.51787e+08
    5.55              249763             365.536         -5.4014e+06         1.51439e+08
    5.57              249060             364.447        -5.38813e+06         1.51091e+08
    5.59              248356             363.359        -5.37483e+06         1.50742e+08
    5.61              247650             362.271         -5.3615e+06         1.50392e+08
    5.63              246944             361.184        -5.34813e+06         1.50042e+08
    5.65              246237             360.098        -5.33473e+06          1.4969e+08
    5.67              245529             359.013        -5.32129e+06         1.49337e+08
    5.69              244820             357.928        -5.30783e+06         1.48984e+08
    5.71              244109             356.844        -5.29432e+06          1.4863e+08
    5.73              243398             355.761        -5.28079e+06         1.48275e+08
    5.75              242686             354.679        -5.26722e+06         1.47919e+08
    5.77              241973             353.598        -5.25362e+06         1.47562e+08
    5.79              241259             352.517        -5.23999e+06         1.47204e+08
    5.81              240544             351.438        -5.22633e+06         1.46846e+08
    5.83              239828             350.359        -5.21264e+06         1.46487e+08
    5.85              239111             349.282        -5.19891e+06         1.46127e+08
    5.87              238394             348.205        -5.18516e+06         1.45766e+08
    5.89              237675              347.13        -5.17137e+06         1.45404e+08
    5.91              236956             346.055        -5.15756e+06         1.45042e+08
    5.93              236236             344.982        -5.14372e+06         1.44678e+08
    5.95              235515             343.909        -5.12984e+06         1.44315e+08
    5.97              234793             342.838        -5.11594e+06          1.4395e+08
    5.99              234071             341.768        -5.10201e+06         1.43584e+08
    6.01              233348             340.699        -5.08805e+06         1.43218e+08
    6.03              232624             339.632        -5.07407e+06         1.42851e+08
    6.05              231899             338.565        -5.06006e+06         1.42484e+08
    6.07              231174               337.5        -5.04602e+06         1.42115e+08
    6.09              230448             336.436        -5.03195e+06         1.41746e+08
    6.11              229722             335.373        -5.01785e+06         1.41377e+08
    6.13              228994             334.312        -5.00374e+06         1.41006e+08
    6.15              228266             333.252        -4.98959e+06         1.40635e+08
    6.17              227538             332.193        -4.97542e+06         1.40264e+08
    6.19              226809             331.135        -4.96122e+06         1.39891e+08
    6.21              226079             330.079          -4.947e+06         1.39518e+08
    6.23              225349             329.025        -4.93276e+06         1.39145e+08
    6.25              224618             327.972        -4.91849e+06          1.3877e+08
    6.27              223887              326.92         -4.9042e+06         1.38396e+08
    6.29              223155             325.869        -4.88989e+06          1.3802e+08
    6.31              222423             324.821        -4.87555e+06         1.37644e+08
    6.33              221690             323.773        -4.86119e+06         1.37268e+08
    6.35              220957             322.727        -4.84681e+06          1.3689e+08
    6.37              220223             321.683        -4.83241e+06         1.36513e+08
    6.39              219489              320.64        -4.81798e+06         1.36134e+08
    6.41              218754             319.599        -4.80354e+06         1.35755e+08
    6.43              218019              318.56        -4.78907e+06         1.35376e+08
    6.45              217284             317.522        -4.77459e+06         1.34996e+08
    6.47              216548             316.485        -4.76008e+06         1.34616e+08
    6.49              215812             315.451        -4.74556e+06         1.34235e+08
    6.51              215076             314.418        -4.73101e+06         1.33853e+08
    6.53              214339             313.386        -4.71645e+06         1.33472e+08
    6.55              213602             312.357        -4.70187e+06         1.33089e+08
    6.57              212865             311.329        -4.68727e+06         1.32706e+08
    6.59              212128             310.302        -4.67266e+06         1.32323e+08
    6.61              211390             309.278        -4.65803e+06         1.31939e+08
    6.63              210652             308.255        -4.64338e+06         1.31555e+08
    6.65              209914             307.234        -4.62872e+06         1.31171e+08
    6.67              209176             306.215        -4.61404e+06         1.30786e+08
    6.69              208437             305.198        -4.59934e+06         1.30401e+08
    6.71              207698             304.182        -4.58463e+06         1.30015e+08
    6.73              206960             303.168        -4.56991e+06         1.29629e+08
    6.75              206221             302.156        -4.55517e+06         1.29242e+08
    6.77              205482             301.146        -4.54042e+06         1.28855e+08
    6.79              204743             300.138        -4.52566e+06         1.28468e+08
    6.81              204004             299.132        -4.51088e+06         1.28081e+08
    6.83              203265             298.127        -4.49609e+06         1.27693e+08
    6.85              202526             297.125        -4.48129e+06         1.27305e+08
    6.87              201786             296.124        -4.46648e+06         1.26917e+08
    6.89              201047             295.126        -4.45165e+06         1.26528e+08
    6.91              200308             294.129        -4.43682e+06         1.26139e+08
    6.93              199569             293.135        -4.42197e+06          1.2575e+08
    6.95              198830             292.142        -4.40712e+06          1.2536e+08
    6.97              198091             291.151        -4.39226e+06         1.24971e+08
    6.99              197352             290.162        -4.37738e+06         1.24581e+08
    7.01              196614             289.176         -4.3625e+06         1.24191e+08
    7.03              195875             288.191        -4.34761e+06           1.238e+08
    7.05              195137             287.209        -4.33272e+06          1.2341e+08
    7.07              194398             286.228        -4.31782e+06         1.23019e+08
    7.09              193660             285.249        -4.30291e+06         1.22628e+08
    7.11              192922             284.273        -4.28799e+06         1.22237e+08
    7.13              192185             283.299        -4.27307e+06         1.21846e+08
    7.15              191447             282.326        -4.25814e+06         1.21454e+08
    7.17              190710             281.356        -4.24321e+06         1.21063e+08
    7.19              189973             280.388        -4.22828e+06         1.20671e+08
    7.21              189237             279.422        -4.21334e+06          1.2028e+08
    7.23              188501             278.458        -4.19839e+06         1.19888e+08
    7.25              187765             277.497        -4.18345e+06         1.19496e+08
    7.27              187029             276.537         -4.1685e+06         1.19104e+08
    7.29              186294              275.58        -4.15355e+06         1.18712e+08
    7.31              185559             274.625        -4.13859e+06          1.1832e+08
    7.33              184825             273.672        -4.12364e+06         1.17928e+08
    7.35              184091             272.721        -4.10868e+06         1.17536e+08
    7.37              183357             271.772        -4.09373e+06         1.17144e+08
    7.39              182624             270.826        -4.07877e+06         1.16752e+08
    7.41              181892             269.881        -4.06382e+06          1.1636e+08
    7.43              181160             268.939        -4.04887e+06         1.15968e+08
    7.45              180428             267.999        -4.03392e+06         1.15576e+08
    7.47              179697             267.062        -4.01897e+06         1.15184e+08
    7.49              178967             266.126        -4.00402e+06         1.14793e+08
    7.51              178237             265.193        -3.98907e+06         1.14401e+08
    7.53              177508             264.263        -3.97413e+06         1.14009e+08
    7.55              176779             263.334         -3.9592e+06         1.13618e+08
    7.57              176051             262.408        -3.94426e+06         1.13226e+08
    7.59              175323             261.484        -3.92934e+06         1.12835e+08
    7.61              174596             260.562        -3.91441e+06         1.12444e+08
    7.63              173870             259.642         -3.8995e+06         1.12053e+08
    7.65              173145             258.725        -3.88458e+06         1.11662e+08
    7.67              172420              257.81        -3.86968e+06         1.11271e+08
    7.69              171696             256.897        -3.85478e+06         1.10881e+08
    7.71              170973             255.987        -3.83989e+06         1.10491e+08
    7.73              170251             255.079        -3.82501e+06         1.10101e+08
    7.75              169529             254.173        -3.81014e+06         1.09711e+08
    7.77              168808              253.27        -3.79527e+06         1.09321e+08
    7.79              168088             252.369        -3.78042e+06         1.08932e+08
    7.81              167369              251.47        -3.76557e+06         1.08543e+08
    7.83              166650             250.574        -3.75074e+06         1.08154e+08
    7.85              165933              249.68        -3.73592e+06         1.07766e+08
    7.87              165216             248.788         -3.7211e+06         1.07377e+08
    7.89              164500             247.899         -3.7063e+06         1.06989e+08
    7.91              163786             247.011        -3.69151e+06         1.06602e+08
    7.93              163072             246.127        -3.67674e+06         1.06215e+08
    7.95              162359             245.244        -3.66197e+06         1.05828e+08
    7.97              161647             244.364        -3.64723e+06         1.05441e+08
    7.99              160936             243.487        -3.63249e+06         1.05055e+08
    8.01              160226             242.612        -3.61777e+06         1.04669e+08
    8.03              159517             241.739        -3.60306e+06         1.04284e+08
    8.05              158810             240.868        -3.58837e+06         1.03899e+08
    8.07              158103                 240         -3.5737e+06         1.03514e+08
    8.09              157397             239.134        -3.55904e+06          1.0313e+08
    8.11              156692             238.271         -3.5444e+06         1.02747e+08
    8.13              155989              237.41        -3.52978e+06         1.02363e+08
    8.15              155287             236.551        -3.51517e+06         1.01981e+08
    8.17              154585             235.695        -3.50058e+06         1.01598e+08
    8.19              153885             234.841        -3.48601e+06         1.01217e+08
    8.21              153187              233.99        -3.47146e+06         1.00835e+08
    8.23              152489             233.141        -3.45693e+06         1.00455e+08
    8.25              151793             232.294        -3.44242e+06         1.00075e+08
    8.27              151097              231.45        -3.42793e+06         9.96948e+07
    8.29              150403             230.608        -3.41346e+06         9.93157e+07
    8.31              149711             229.768        -3.39901e+06         9.89372e+07
    8.33              149019             228.931        -3.38459e+06         9.85592e+07
    8.35              148329             228.096        -3.37018e+06         9.81818e+07
    8.37              147641             227.264         -3.3558e+06          9.7805e+07
    8.39              146953             226.434        -3.34144e+06         9.74289e+07
    8.41              146267             225.606        -3.32711e+06         9.70533e+07
    8.43              145582             224.781         -3.3128e+06         9.66784e+07
    8.45              144899             223.958        -3.29851e+06         9.63042e+07
    8.47              144217             223.138        -3.28425e+06         9.59306e+07
    8.49              143537              222.32        -3.27002e+06         9.55576e+07
    8.51              142858             221.504        -3.25581e+06         9.51854e+07
    8.53              142180             220.691        -3.24162e+06         9.48138e+07
    8.55              141504              219.88        -3.22747e+06          9.4443e+07
    8.57              140829             219.072        -3.21334e+06         9.40729e+07
    8.59              140156             218.266        -3.19923e+06         9.37035e+07
    8.61              139484             217.462        -3.18516e+06         9.33348e+07
    8.63              138814             216.661        -3.17112e+06         9.29669e+07
    8.65              138145             215.862         -3.1571e+06         9.25997e+07
    8.67              137478             215.066        -3.14311e+06         9.22334e+07
    8.69              136813             214.272        -3.12915e+06         9.18678e+07
    8.71              136149              213.48        -3.11523e+06          9.1503e+07
    8.73              135487             212.691        -3.10133e+06          9.1139e+07
    8.75              134826             211.904        -3.08746e+06         9.07758e+07
    8.77              134167              211.12        -3.07363e+06         9.04135e+07
    8.79              133510             210.338        -3.05983e+06          9.0052e+07
    8.81              132854             209.558        -3.04606e+06         8.96914e+07
    8.83              132200              208.78        -3.03232e+06         8.93316e+07
    8.85              131548             208.005        -3.01861e+06         8.89727e+07
    8.87              130897             207.233        -3.00494e+06         8.86146e+07
    8.89              130248             206.463         -2.9913e+06         8.82575e+07
    8.91              129601             205.695         -2.9777e+06         8.79013e+07
    8.93              128956             204.929        -2.96413e+06          8.7546e+07
    8.95              128312             204.166         -2.9506e+06         8.71916e+07
    8.97              127670             203.405         -2.9371e+06         8.68381e+07
    8.99              127030             202.647        -2.92364e+06         8.64856e+07
    9.01              126392             201.891        -2.91021e+06         8.61341e+07
    9.03              125756             201.137        -2.89682e+06         8.57835e+07
    9.05              125121             200.386        -2.88347e+06         8.54339e+07
    9.07              124488             199.637        -2.87016e+06         8.50853e+07
    9.09              123857              198.89        -2.85688e+06         8.47377e+07
    9.11              123228             198.146        -2.84364e+06         8.43911e+07
    9.13              122601             197.404        -2.83044e+06         8.40455e+07
    9.15              121976             196.664        -2.81728e+06          8.3701e+07
    9.17              121353             195.927        -2.80415e+06         8.33574e+07
    9.19              120732             195.192        -2.79107e+06          8.3015e+07
    9.21              120112             194.459        -2.77803e+06         8.26736e+07
    9.23              119495             193.728        -2.76503e+06         8.23332e+07
    9.25              118879                 193        -2.75207e+06         8.19939e+07
    9.27              118266             192.275        -2.73915e+06         8.16557e+07
    9.29              117655             191.551        -2.72627e+06         8.13187e+07
    9.31              117045              190.83        -2.71343e+06         8.09827e+07
    9.33              116438             190.111        -2.70064e+06         8.06478e+07
    9.35              115832             189.395        -2.68788e+06          8.0314e+07
    9.37              115229              188.68        -2.67517e+06         7.99814e+07
    9.39              114628             187.968        -2.66251e+06         7.96499e+07
    9.41              114029             187.259        -2.64988e+06         7.93196e+07
    9.43              113431             186.551        -2.63731e+06         7.89904e+07
    9.45              112836             185.846        -2.62477e+06         7.86624e+07
    9.47              112244             185.143        -2.61228e+06         7.83356e+07
    9.49              111653             184.443        -2.59984e+06         7.80099e+07
    9.51              111064             183.744        -2.58744e+06         7.76855e+07
    9.53              110478             183.048        -2.57508e+06         7.73622e+07
    9.55              109893             182.354        -2.56277e+06         7.70402e+07
    9.57              109311             181.663        -2.55051e+06         7.67193e+07
    9.59              108731             180.973        -2.53829e+06         7.63997e+07
    9.61              108153             180.286        -2.52612e+06         7.60814e+07
    9.63              107578             179.601          -2.514e+06         7.57642e+07
    9.65              107004             178.919        -2.50192e+06         7.54484e+07
    9.67              106433             178.238         -2.4899e+06         7.51337e+07
    9.69              105864              177.56        -2.47792e+06         7.48204e+07
    9.71              105297             176.884        -2.46599e+06         7.45083e+07
    9.73              104733              176.21         -2.4541e+06         7.41975e+07
    9.75              104170             175.538        -2.44227e+06          7.3888e+07
    9.77              103610             174.869        -2.43048e+06         7.35797e+07
    9.79              103053             174.201        -2.41875e+06         7.32728e+07
    9.81              102497             173.536        -2.40706e+06         7.29672e+07
    9.83              101944             172.873        -2.39542e+06         7.26629e+07
    9.85              101393             172.212        -2.38384e+06         7.23599e+07
    9.87              100845             171.554         -2.3723e+06         7.20582e+07
    9.89              100299             170.897        -2.36081e+06         7.17579e+07
    9.91               99755             170.243        -2.34938e+06          7.1459e+07
    9.93             99213.5              169.59          -2.338e+06         7.11613e+07
    9.95             98674.4              168.94        -2.32666e+06         7.08651e+07
    9.97             98137.6             168.292        -2.31538e+06         7.05701e+07
    9.99             97603.2             167.646        -2.30415e+06         7.02766e+07
   10.01             97071.2             167.003        -2.29298e+06         6.99844e+07
   10.03             96541.5             166.361        -2.28185e+06         6.96936e+07
   10.05             96014.3             165.721        -2.27078e+06         6.94042e+07
   10.07             95489.4             165.084        -2.25976e+06         6.91162e+07
   10.09               94967             164.449         -2.2488e+06         6.88296e+07
   10.11             94446.9             163.815        -2.23788e+06         6.85444e+07
   10.13             93929.3             163.184        -2.22702e+06         6.82606e+07
   10.15             93414.1             162.555        -2.21622e+06         6.79782e+07
   10.17             92901.4             161.928        -2.20546e+06         6.76972e+07
   10.19             92391.1             161.302        -2.19477e+06         6.74176e+07
   10.21             91883.2             160.679        -2.18412e+06         6.71395e+07
   10.23             91377.8             160.058        -2.17353e+06         6.68628e+07
   10.25             90874.9             159.439          -2.163e+06         6.65876e+07
   10.27             90374.4             158.822        -2.15252e+06         6.63137e+07
   10.29             89876.4             158.207        -2.14209e+06         6.60414e+07
   10.31             89380.9             157.594        -2.13172e+06         6.57704e+07
   10.33             88887.8             156.983         -2.1214e+06          6.5501e+07
   10.35             88397.3             156.374        -2.11114e+06          6.5233e+07
   10.37             87909.2             155.767        -2.10094e+06         6.49664e+07
   10.39             87423.7             155.162        -2.09079e+06         6.47014e+07
   10.41             86940.7             154.559         -2.0807e+06         6.44378e+07
   10.43             86460.1             153.958        -2.07066e+06         6.41757e+07
   10.45             85982.1             153.358        -2.06068e+06          6.3915e+07
   10.47             85506.6             152.761        -2.05075e+06         6.36559e+07
   10.49             85033.7             152.166        -2.04089e+06         6.33982e+07
   10.51             84563.3             151.572        -2.03107e+06          6.3142e+07
   10.53             84095.4             150.981        -2.02132e+06         6.28873e+07
   10.55               83630             150.391        -2.01162e+06         6.26341e+07
   10.57             83167.2             149.803        -2.00198e+06         6.23824e+07
   10.59               82707             149.218         -1.9924e+06         6.21322e+07
   10.61             82249.3             148.634        -1.98287e+06         6.18835e+07
   10.63             81794.2             148.052         -1.9734e+06         6.16363e+07
   10.65             81341.6             147.471        -1.96399e+06         6.13907e+07
   10.67             80891.6             146.893        -1.95463e+06         6.11465e+07
   10.69             80444.1             146.316        -1.94533e+06         6.09038e+07
   10.71             79999.2             145.742        -1.93609e+06         6.06627e+07
   10.73             79556.9             145.169        -1.92691e+06         6.04231e+07
   10.75             79117.2             144.598        -1.91779e+06          6.0185e+07
   10.77               78680             144.029        -1.90872e+06         5.99484e+07
   10.79             78245.4             143.461        -1.89971e+06         5.97134e+07
   10.81             77813.4             142.896        -1.89076e+06         5.94799e+07
   10.83               77384             142.332        -1.88187e+06         5.92479e+07
   10.85             76957.2              141.77        -1.87304e+06         5.90174e+07
   10.87             76532.9             141.209        -1.86426e+06         5.87885e+07
   10.89             76111.3             140.651        -1.85554e+06          5.8561e+07
   10.91             75692.2             140.094        -1.84688e+06         5.83352e+07
   10.93             75275.7             139.539        -1.83828e+06         5.81108e+07
   10.95             74861.8             138.986        -1.82974e+06          5.7888e+07
   10.97             74450.6             138.434        -1.82125e+06         5.76667e+07
   10.99             74041.9             137.884        -1.81283e+06          5.7447e+07
   11.01             73635.8             137.336        -1.80446e+06         5.72288e+07
   11.03             73232.3              136.79        -1.79615e+06         5.70121e+07
   11.05             72831.4             136.245         -1.7879e+06          5.6797e+07
   11.07             72433.1             135.702        -1.77971e+06         5.65834e+07
   11.09             72037.4             135.161        -1.77157e+06         5.63713e+07
   11.11             71644.2             134.621         -1.7635e+06         5.61608e+07
   11.13             71253.7             134.083        -1.75548e+06         5.59518e+07
   11.15             70865.8             133.547        -1.74752e+06         5.57444e+07
   11.17             70480.5             133.012        -1.73962e+06         5.55385e+07
   11.19             70097.8             132.479        -1.73178e+06         5.53341e+07
   11.21             69717.6             131.947          -1.724e+06         5.51312e+07
   11.23             69340.1             131.418        -1.71627e+06         5.49299e+07
   11.25             68965.1             130.889        -1.70861e+06         5.47301e+07
   11.27             68592.8             130.363          -1.701e+06         5.45319e+07
   11.29               68223             129.838        -1.69345e+06         5.43351e+07
   11.31             67855.9             129.314        -1.68596e+06         5.41399e+07
   11.33             67491.3             128.793        -1.67853e+06         5.39463e+07
   11.35             67129.3             128.272        -1.67115e+06         5.37541e+07
   11.37             66769.8             127.754        -1.66384e+06         5.35635e+07
   11.39               66413             127.237        -1.65658e+06         5.33744e+07
   11.41             66058.7             126.721        -1.64938e+06         5.31868e+07
   11.43             65707.1             126.207        -1.64224e+06         5.30008e+07
   11.45               65358             125.695        -1.63515e+06         5.28162e+07
   11.47             65011.4             125.184        -1.62813e+06         5.26332e+07
   11.49             64667.4             124.674        -1.62116e+06         5.24517e+07
   11.51               64326             124.166        -1.61425e+06         5.22717e+07
   11.53             63987.2              123.66        -1.60739e+06         5.20932e+07
   11.55             63650.9             123.155         -1.6006e+06         5.19162e+07
   11.57             63317.2             122.652        -1.59386e+06         5.17407e+07
   11.59               62986              122.15        -1.58718e+06         5.15668e+07
   11.61             62657.4              121.65        -1.58056e+06         5.13943e+07
   11.63             62331.3             121.151        -1.57399e+06         5.12233e+07
   11.65             62007.8             120.653        -1.56748e+06         5.10538e+07
   11.67             61686.8             120.157        -1.56103e+06         5.08858e+07
   11.69             61368.4             119.663        -1.55463e+06         5.07192e+07
   11.71             61052.4              119.17         -1.5483e+06         5.05542e+07
   11.73               60739             118.678        -1.54201e+06         5.03906e+07
   11.75             60428.1             118.188        -1.53579e+06         5.02285e+07
   11.77             60119.8               117.7        -1.52962e+06         5.00679e+07
   11.79             59813.9             117.212        -1.52351e+06         4.99088e+07
   11.81             59510.6             116.727        -1.51745e+06         4.97511e+07
   11.83             59209.7             116.242        -1.51145e+06         4.95949e+07
   11.85             58911.4             115.759        -1.50551e+06         4.94401e+07
   11.87             58615.5             115.278        -1.49962e+06         4.92868e+07
   11.89             58322.1             114.798        -1.49379e+06         4.91349e+07
   11.91             58031.2             114.319        -1.48801e+06         4.89845e+07
   11.93             57742.8             113.842        -1.48229e+06         4.88355e+07
   11.95             57456.8             113.366        -1.47662e+06          4.8688e+07
   11.97             57173.3             112.892        -1.47101e+06         4.85419e+07
   11.99             56892.3             112.419        -1.46545e+06         4.83972e+07
   12.01             56613.7             111.947        -1.45995e+06         4.82539e+07
   12.03             56337.6             111.477         -1.4545e+06         4.81121e+07
   12.05             56063.9             111.008         -1.4491e+06         4.79716e+07
   12.07             55792.6             110.541        -1.44376e+06         4.78326e+07
   12.09             55523.8             110.075        -1.43848e+06          4.7695e+07
   12.11             55257.3              109.61        -1.43325e+06         4.75587e+07
   12.13             54993.3             109.147        -1.42807e+06         4.74239e+07
   12.15             54731.7             108.685        -1.42294e+06         4.72904e+07
   12.17             54472.5             108.225        -1.41787e+06         4.71584e+07
   12.19             54215.7             107.766        -1.41285e+06         4.70277e+07
   12.21             53961.2             107.308        -1.40789e+06         4.68983e+07
   12.23             53709.1             106.852        -1.40297e+06         4.67704e+07
   12.25             53459.4             106.397        -1.39811e+06         4.66438e+07
   12.27             53212.1             105.944         -1.3933e+06         4.65185e+07
   12.29             52967.1             105.492        -1.38855e+06         4.63946e+07
   12.31             52724.5             105.041        -1.38384e+06         4.62721e+07
   12.33             52484.2             104.592        -1.37919e+06         4.61509e+07
   12.35             52246.2             104.144        -1.37459e+06          4.6031e+07
   12.37             52010.6             103.698        -1.37004e+06         4.59124e+07
   12.39             51777.2             103.252        -1.36554e+06         4.57952e+07
   12.41             51546.2             102.809        -1.36109e+06         4.56792e+07
   12.43             51317.5             102.367        -1.35669e+06         4.55646e+07
   12.45               51091             101.926        -1.35234e+06         4.54512e+07
   12.47             50866.8             101.486        -1.34804e+06         4.53392e+07
   12.49             50644.9             101.048         -1.3438e+06         4.52284e+07
   12.51             50425.3             100.612         -1.3396e+06          4.5119e+07
   12.53             50207.9             100.177        -1.33545e+06         4.50108e+07
   12.55             49992.8             99.7432        -1.33135e+06         4.49038e+07
   12.57             49779.9             99.3109         -1.3273e+06         4.47982e+07
   12.59             49569.2             98.8802         -1.3233e+06         4.46937e+07
   12.61             49360.8             98.4508        -1.31934e+06         4.45906e+07
   12.63             49154.5             98.0229        -1.31543e+06         4.44886e+07
   12.65             48950.5             97.5965        -1.31158e+06         4.43879e+07
   12.67             48748.6             97.1716        -1.30777e+06         4.42884e+07
   12.69             48548.9             96.7481          -1.304e+06         4.41902e+07
   12.71             48351.4             96.3261        -1.30029e+06         4.40931e+07
   12.73             48156.1             95.9056        -1.29662e+06         4.39973e+07
   12.75             47962.9             95.4866          -1.293e+06         4.39026e+07
   12.77             47771.8             95.0691        -1.28942e+06         4.38092e+07
   12.79             47582.9             94.6531        -1.28589e+06         4.37169e+07
   12.81             47396.1             94.2386        -1.28241e+06         4.36258e+07
   12.83             47211.4             93.8257        -1.27897e+06         4.35358e+07
   12.85             47028.8             93.4143        -1.27557e+06         4.34471e+07
   12.87             46848.3             93.0044        -1.27222e+06         4.33594e+07
   12.89             46669.9             92.5961        -1.26892e+06          4.3273e+07
   12.91             46493.5             92.1894        -1.26566e+06         4.31876e+07
   12.93             46319.2             91.7843        -1.26245e+06         4.31034e+07
   12.95               46147             91.3807        -1.25928e+06         4.30203e+07
   12.97             45976.8             90.9787        -1.25615e+06         4.29384e+07
   12.99             45808.7             90.5784        -1.25307e+06         4.28575e+07
   13.01             45642.5             90.1796        -1.25002e+06         4.27777e+07
   13.03             45478.4             89.7825        -1.24703e+06         4.26991e+07
   13.05             45316.2              89.387        -1.24407e+06         4.26215e+07
   13.07             45156.1             88.9932        -1.24116e+06          4.2545e+07
   13.09             44997.9             88.6011        -1.23829e+06         4.24695e+07
   13.11             44841.7             88.2106        -1.23546e+06         4.23951e+07
   13.13             44687.4             87.8218        -1.23267e+06         4.23218e+07
   13.15             44535.1             87.4347        -1.22992e+06         4.22495e+07
   13.17             44384.8             87.0493        -1.22722e+06         4.21783e+07
   13.19             44236.3             86.6657        -1.22455e+06          4.2108e+07
   13.21             44089.8             86.2838        -1.22192e+06         4.20388e+07
   13.23             43945.1             85.9036        -1.21934e+06         4.19706e+07
   13.25             43802.4             85.5252        -1.21679e+06         4.19035e+07
   13.27             43661.5             85.1486        -1.21429e+06         4.18373e+07
   13.29             43522.5             84.7738        -1.21182e+06         4.17721e+07
   13.31             43385.3             84.4008        -1.20939e+06         4.17079e+07
   13.33               43250             84.0296          -1.207e+06         4.16446e+07
   13.35             43116.5             83.6603        -1.20465e+06         4.15823e+07
   13.37             42984.9             83.2927        -1.20233e+06          4.1521e+07
   13.39               42855             82.9271        -1.20005e+06         4.14606e+07
   13.41               42727             82.5633        -1.19782e+06         4.14012e+07
   13.43             42600.7             82.2015        -1.19561e+06         4.13427e+07
   13.45             42476.2             81.8415        -1.19345e+06         4.12851e+07
   13.47             42353.5             81.4834        -1.19132e+06         4.12284e+07
   13.49             42232.5             81.1273        -1.18922e+06         4.11727e+07
   13.51             42113.3             80.7732        -1.18717e+06         4.11178e+07
   13.53             41995.8              80.421        -1.18514e+06         4.10639e+07
   13.55               41880             80.0708        -1.18316e+06         4.10108e+07
   13.57               41766             79.7225         -1.1812e+06         4.09586e+07
   13.59             41653.6             79.3763        -1.17929e+06         4.09072e+07
   13.61             41542.9             79.0321         -1.1774e+06         4.08567e+07
   13.63             41433.9               78.69        -1.17555e+06         4.08071e+07
   13.65             41326.5             78.3499        -1.17374e+06         4.07583e+07
   13.67             41220.8             78.0119        -1.17195e+06         4.07103e+07
   13.69             41116.7              77.676        -1.17021e+06         4.06632e+07
   13.71             41014.3             77.3421        -1.16849e+06         4.06168e+07
   13.73             40913.4             77.0104         -1.1668e+06         4.05713e+07
   13.75             40814.2             76.6809        -1.16515e+06         4.05266e+07
   13.77             40716.5             76.3534        -1.16353e+06         4.04827e+07
   13.79             40620.5             76.0282        -1.16194e+06         4.04395e+07
   13.81               40526             75.7051        -1.16038e+06         4.03972e+07
   13.83               40433             75.3841        -1.15886e+06         4.03556e+07
   13.85             40341.6             75.0654        -1.15736e+06         4.03147e+07
   13.87             40251.8              74.749         -1.1559e+06         4.02746e+07
   13.89             40163.4             74.4347        -1.15446e+06         4.02353e+07
   13.91             40076.6             74.1227        -1.15305e+06         4.01967e+07
   13.93             39991.2              73.813        -1.15168e+06         4.01588e+07
   13.95             39907.4             73.5055        -1.15033e+06         4.01216e+07
   13.97               39825             73.2003        -1.14901e+06         4.00852e+07
   13.99             39744.1             72.8975        -1.14772e+06         4.00494e+07
   14.01             39664.6             72.5969        -1.14646e+06         4.00144e+07
   14.03             39586.5             72.2987        -1.14522e+06           3.998e+07
   14.05             39509.9             72.0028        -1.14402e+06         3.99463e+07
   14.07             39434.7             71.7093        -1.14284e+06         3.99133e+07
   14.09               39361             71.4182        -1.14169e+06         3.98809e+07
   14.11             39288.5             71.1294        -1.14056e+06         3.98492e+07
   14.13             39217.5             70.8431        -1.13946e+06         3.98181e+07
   14.15             39147.9             70.5591        -1.13839e+06         3.97877e+07
   14.17             39079.6             70.2776        -1.13734e+06         3.97579e+07
   14.19             39012.6             69.9985        -1.13632e+06         3.97288e+07
   14.21               38947             69.7218        -1.13532e+06         3.97002e+07
   14.23             38882.7             69.4477        -1.13435e+06         3.96723e+07
   14.25             38819.7             69.1759        -1.13341e+06         3.96449e+07
   14.27               38758             68.9067        -1.13248e+06         3.96182e+07
   14.29             38697.6             68.6399        -1.13159e+06          3.9592e+07
   14.31             38638.5             68.3757        -1.13071e+06         3.95664e+07
   14.33             38580.7             68.1139        -1.12986e+06         3.95414e+07
   14.35             38524.1             67.8547        -1.12903e+06         3.95169e+07
   14.37             38468.7              67.598        -1.12823e+06          3.9493e+07
   14.39             38414.6             67.3438        -1.12745e+06         3.94696e+07
   14.41             38361.7             67.0922        -1.12669e+06         3.94468e+07
   14.43               38310             66.8432        -1.12595e+06         3.94245e+07
   14.45             38259.5             66.5967        -1.12524e+06         3.94028e+07
   14.47             38210.1             66.3528        -1.12454e+06         3.93815e+07
   14.49               38162             66.1114        -1.12387e+06         3.93608e+07
   14.51               38115             65.8727        -1.12322e+06         3.93405e+07
   14.53             38069.2             65.6366        -1.12259e+06         3.93208e+07
   14.55             38024.5              65.403        -1.12197e+06         3.93015e+07
   14.57             37980.9             65.1721        -1.12138e+06         3.92827e+07
   14.59             37938.5             64.9438        -1.12081e+06         3.92644e+07
   14.61             37897.1             64.7181        -1.12026e+06         3.92466e+07
   14.63             37856.9              64.495        -1.11973e+06         3.92292e+07
   14.65             37817.8             64.2746        -1.11922e+06         3.92123e+07
   14.67             37779.7             64.0568        -1.11873e+06         3.91958e+07
   14.69             37742.7             63.8417        -1.11825e+06         3.91797e+07
   14.71             37706.7             63.6292        -1.11779e+06         3.91641e+07
   14.73             37671.8             63.4193        -1.11736e+06         3.91489e+07
   14.75             37637.9             63.2122        -1.11693e+06         3.91341e+07
   14.77             37605.1             63.0076        -1.11653e+06         3.91198e+07
   14.79             37573.2             62.8058        -1.11614e+06         3.91058e+07
   14.81             37542.4             62.6066        -1.11578e+06         3.90922e+07
   14.83             37512.5               62.41        -1.11542e+06         3.90791e+07
   14.85             37483.6             62.2162        -1.11509e+06         3.90663e+07
   14.87             37455.7              62.025        -1.11477e+06         3.90538e+07
   14.89             37428.8             61.8364        -1.11446e+06         3.90418e+07
   14.91             37402.8             61.6506        -1.11418e+06         3.90301e+07
   14.93             37377.7             61.4674         -1.1139e+06         3.90188e+07
   14.95             37353.6             61.2869        -1.11365e+06         3.90078e+07
   14.97             37330.4             61.1091        -1.11341e+06         3.89972e+07
   14.99             37308.1             60.9339        -1.11318e+06         3.89869e+07
   15.01             37286.6             60.7614        -1.11297e+06         3.89769e+07
   15.03             37266.1             60.5916        -1.11277e+06         3.89673e+07
   15.05             37246.5             60.4245        -1.11258e+06          3.8958e+07
   15.07             37227.7               60.26        -1.11241e+06          3.8949e+07
   15.09             37209.8             60.0982        -1.11226e+06         3.89403e+07
   15.11             37192.7              59.939        -1.11211e+06         3.89319e+07
   15.13             37176.5             59.7825        -1.11198e+06         3.89238e+07
   15.15               37161             59.6287        -1.11187e+06         3.89161e+07
   15.17             37146.5             59.4775        -1.11176e+06         3.89085e+07
   15.19             37132.7              59.329        -1.11167e+06         3.89013e+07
   15.21             37119.7             59.1831        -1.11159e+06         3.88943e+07
   15.23             37107.5             59.0398        -1.11152e+06         3.88877e+07
   15.25             37096.1             58.8992        -1.11147e+06         3.88812e+07
   15.27             37085.4             58.7612        -1.11142e+06          3.8875e+07
   15.29             37075.6             58.6258        -1.11139e+06         3.88691e+07
   15.31             37066.4             58.4931        -1.11137e+06         3.88635e+07
   15.33             37058.1             58.3629        -1.11136e+06          3.8858e+07
   15.35             37050.4             58.2354        -1.11136e+06         3.88528e+07
   15.37             37043.5             58.1104        -1.11137e+06         3.88478e+07
   15.39             37037.3             57.9881        -1.11139e+06         3.88431e+07
   15.41             37031.8             57.8683        -1.11142e+06         3.88386e+07
   15.43               37027             57.7511        -1.11146e+06         3.88343e+07
   15.45             37022.9             57.6365        -1.11151e+06         3.88302e+07
   15.47             37019.4             57.5245        -1.11157e+06         3.88263e+07
   15.49             37016.7             57.4149        -1.11164e+06         3.88226e+07
   15.51             37014.6              57.308        -1.11172e+06          3.8819e+07
   15.53             37013.1             57.2035        -1.11181e+06         3.88157e+07
   15.55             37012.3             57.1016         -1.1119e+06         3.88126e+07
   15.57             37012.2             57.0022        -1.11201e+06         3.88097e+07
   15.59             37012.6             56.9053        -1.11212e+06         3.88069e+07
   15.61             37013.7             56.8109        -1.11224e+06         3.88043e+07
   15.63             37015.4              56.719        -1.11237e+06         3.88018e+07
   15.65             37017.7             56.6296        -1.11251e+06         3.87996e+07
   15.67             37020.6             56.5426        -1.11266e+06         3.87974e+07
   15.69             37024.1              56.458        -1.11281e+06         3.87955e+07
   15.71             37028.2              56.376        -1.11297e+06         3.87937e+07
   15.73             37032.8             56.2963        -1.11314e+06          3.8792e+07
   15.75               37038              56.219        -1.11331e+06         3.87905e+07
   15.77             37043.8             56.1442        -1.11349e+06         3.87891e+07
   15.79             37050.1             56.0717        -1.11368e+06         3.87878e+07
   15.81             37056.9             56.0016        -1.11388e+06         3.87867e+07
   15.83             37064.3             55.9339        -1.11408e+06         3.87857e+07
   15.85             37072.2             55.8685        -1.11428e+06         3.87848e+07
   15.87             37080.6             55.8055         -1.1145e+06          3.8784e+07
   15.89             37089.5             55.7448        -1.11472e+06         3.87833e+07
   15.91               37099             55.6864        -1.11494e+06         3.87828e+07
   15.93             37108.9             55.6303        -1.11517e+06         3.87823e+07
   15.95             37119.3             55.5765        -1.11541e+06          3.8782e+07
   15.97             37130.2              55.525        -1.11565e+06         3.87817e+07
   15.99             37141.6             55.4757        -1.11589e+06         3.87816e+07
   16.01             37153.4             55.4286        -1.11614e+06         3.87815e+07
   16.03             37165.7             55.3838         -1.1164e+06         3.87815e+07
   16.05             37178.4             55.3412        -1.11666e+06         3.87816e+07
   16.07             37191.6             55.3008        -1.11692e+06         3.87818e+07
   16.09             37205.2             55.2626        -1.11719e+06         3.87821e+07
   16.11             37219.3             55.2265        -1.11747e+06         3.87824e+07
   16.13             37233.8             55.1926        -1.11774e+06         3.87828e+07
   16.15             37248.7             55.1608        -1.11803e+06         3.87833e+07
   16.17               37264             55.1312        -1.11831e+06         3.87838e+07
   16.19             37279.7             55.1036         -1.1186e+06         3.87844e+07
   16.21             37295.8             55.0782        -1.11889e+06         3.87851e+07
   16.23             37312.3             55.0548        -1.11919e+06         3.87858e+07
   16.25             37329.1             55.0334        -1.11949e+06         3.87865e+07
   16.27             37346.4             55.0141        -1.11979e+06         3.87873e+07
   16.29               37364             54.9968         -1.1201e+06         3.87882e+07
   16.31               37382             54.9816        -1.12041e+06         3.87891e+07
   16.33             37400.4             54.9683        -1.12072e+06           3.879e+07
   16.35             37419.1              54.957        -1.12103e+06          3.8791e+07
   16.37             37438.1             54.9476        -1.12135e+06          3.8792e+07
   16.39             37457.5             54.9402        -1.12167e+06         3.87931e+07
   16.41             37477.3             54.9347        -1.12199e+06         3.87941e+07
   16.43             37497.3             54.9312        -1.12231e+06         3.87952e+07
   16.45             37517.7             54.9295        -1.12264e+06         3.87964e+07
   16.47             37538.4             54.9297        -1.12297e+06         3.87975e+07
   16.49             37559.4             54.9317         -1.1233e+06         3.87987e+07
   16.51             37580.7             54.9356        -1.12363e+06         3.87999e+07
   16.53             37602.3             54.9413        -1.12397e+06         3.88011e+07
   16.55             37624.3             54.9488         -1.1243e+06         3.88023e+07
   16.57             37646.5              54.958        -1.12464e+06         3.88035e+07
   16.59             37668.9             54.9691        -1.12498e+06         3.88048e+07
   16.61             37691.7             54.9819        -1.12532e+06          3.8806e+07
   16.63             37714.7             54.9964        -1.12566e+06         3.88073e+07
   16.65               37738             55.0127          -1.126e+06         3.88085e+07
   16.67             37761.6             55.0306        -1.12635e+06         3.88098e+07
   16.69             37785.4             55.0502        -1.12669e+06         3.88111e+07
   16.71             37809.5             55.0715        -1.12704e+06         3.88123e+07
   16.73             37833.8             55.0945        -1.12739e+06         3.88136e+07
   16.75             37858.4              55.119        -1.12774e+06         3.88148e+07
   16.77             37883.2             55.1452        -1.12808e+06         3.88161e+07
   16.79             37908.2              55.173        -1.12843e+06         3.88173e+07
   16.81             37933.5             55.2023        -1.12878e+06         3.88185e+07
   16.83             37958.9             55.2332        -1.12913e+06         3.88197e+07
   16.85             37984.6             55.2657        -1.12948e+06         3.88209e+07
   16.87             38010.6             55.2996        -1.12983e+06         3.88221e+07
   16.89             38036.7             55.3351        -1.13018e+06         3.88232e+07
   16.91               38063             55.3721        -1.13054e+06         3.88244e+07
   16.93             38089.5             55.4105        -1.13089e+06         3.88255e+07
   16.95             38116.2             55.4504        -1.13124e+06         3.88266e+07
   16.97             38143.1             55.4917        -1.13159e+06         3.88276e+07
   16.99             38170.2             55.5344        -1.13194e+06         3.88287e+07
   17.01             38197.5             55.5785        -1.13229e+06         3.88297e+07
   17.03             38224.9             55.6241        -1.13264e+06         3.88307e+07
   17.05             38252.5             55.6709        -1.13299e+06         3.88317e+07
   17.07             38280.3             55.7192        -1.13334e+06         3.88326e+07
   17.09             38308.2             55.7687        -1.13369e+06         3.88335e+07
   17.11             38336.3             55.8196        -1.13404e+06         3.88344e+07
   17.13             38364.6             55.8718        -1.13439e+06         3.88352e+07
   17.15               38393             55.9252        -1.13474e+06          3.8836e+07
   17.17             38421.5             55.9799        -1.13508e+06         3.88367e+07
   17.19             38450.2             56.0359        -1.13543e+06         3.88375e+07
   17.21             38479.1              56.093        -1.13577e+06         3.88382e+07
   17.23               38508             56.1514        -1.13612e+06         3.88388e+07
   17.25             38537.1              56.211        -1.13646e+06         3.88394e+07
   17.27             38566.4             56.2718        -1.13681e+06           3.884e+07
   17.29             38595.7             56.3337        -1.13715e+06         3.88405e+07
   17.31             38625.2             56.3968        -1.13749e+06          3.8841e+07
   17.33             38654.7              56.461        -1.13783e+06         3.88414e+07
   17.35             38684.4             56.5263        -1.13817e+06         3.88418e+07
   17.37             38714.2             56.5927         -1.1385e+06         3.88422e+07
   17.39             38744.1             56.6601        -1.13884e+06         3.88425e+07
   17.41             38774.1             56.7287        -1.13917e+06         3.88427e+07
   17.43             38804.2             56.7983        -1.13951e+06         3.88429e+07
   17.45             38834.4             56.8689        -1.13984e+06         3.88431e+07
   17.47             38864.7             56.9405        -1.14017e+06         3.88432e+07
   17.49             38895.1             57.0131         -1.1405e+06         3.88433e+07
   17.51             38925.5             57.0867        -1.14083e+06         3.88433e+07
   17.53               38956             57.1613        -1.14115e+06         3.88432e+07
   17.55             38986.6             57.2368        -1.14148e+06         3.88431e+07
   17.57             39017.3             57.3133         -1.1418e+06          3.8843e+07
   17.59               39048             57.3907        -1.14212e+06         3.88428e+07
   17.61             39078.8             57.4689        -1.14244e+06         3.88425e+07
   17.63             39109.7             57.5481        -1.14276e+06         3.88422e+07
   17.65             39140.6             57.6281        -1.14307e+06         3.88418e+07
   17.67             39171.6              57.709        -1.14339e+06         3.88414e+07
   17.69             39202.6             57.7908         -1.1437e+06         3.88409e+07
   17.71             39233.7             57.8733        -1.14401e+06         3.88404e+07
   17.73             39264.8             57.9567        -1.14432e+06         3.88398e+07
   17.75               39296             58.0409        -1.14462e+06         3.88392e+07
   17.77             39327.2             58.1258        -1.14493e+06         3.88385e+07
   17.79             39358.5             58.2116        -1.14523e+06         3.88377e+07
   17.81             39389.7             58.2981        -1.14553e+06         3.88369e+07
   17.83               39421             58.3853        -1.14583e+06          3.8836e+07
   17.85             39452.4             58.4732        -1.14612e+06          3.8835e+07
   17.87             39483.7             58.5619        -1.14642e+06          3.8834e+07
   17.89             39515.1             58.6513        -1.14671e+06          3.8833e+07
   17.91             39546.5             58.7413          -1.147e+06         3.88318e+07
   17.93             39577.9              58.832        -1.14728e+06         3.88306e+07
   17.95             39609.3             58.9234        -1.14757e+06         3.88294e+07
   17.97             39640.8             59.0154        -1.14785e+06         3.88281e+07
   17.99             39672.2              59.108        -1.14813e+06         3.88267e+07
   18.01             39703.7             59.2013        -1.14841e+06         3.88253e+07
   18.03             39735.1             59.2951        -1.14868e+06         3.88238e+07
   18.05             39766.5             59.3896        -1.14895e+06         3.88222e+07
   18.07               39798             59.4846        -1.14922e+06         3.88206e+07
   18.09             39829.4             59.5802        -1.14949e+06         3.88189e+07
   18.11             39860.8             59.6763        -1.14975e+06         3.88171e+07
   18.13             39892.2              59.773        -1.15002e+06         3.88153e+07
   18.15             39923.6             59.8702        -1.15028e+06         3.88134e+07
   18.17               39955              59.968        -1.15053e+06         3.88114e+07
   18.19             39986.3             60.0662        -1.15079e+06         3.88094e+07
   18.21             40017.6             60.1649        -1.15104e+06         3.88073e+07
   18.23             40048.9             60.2641        -1.15129e+06         3.88052e+07
   18.25             40080.2             60.3637        -1.15154e+06         3.88029e+07
   18.27             40111.4             60.4638        -1.15178e+06         3.88006e+07
   18.29             40142.6             60.5644        -1.15202e+06         3.87983e+07
   18.31             40173.7             60.6654        -1.15226e+06         3.87959e+07
   18.33             40204.8             60.7667        -1.15249e+06         3.87934e+07
   18.35             40235.9             60.8686        -1.15272e+06         3.87908e+07
   18.37             40266.9             60.9708        -1.15295e+06         3.87882e+07
   18.39             40297.9             61.0733        -1.15318e+06         3.87855e+07
   18.41             40328.8             61.1763         -1.1534e+06         3.87827e+07
   18.43             40359.7             61.2796        -1.15362e+06         3.87798e+07
   18.45             40390.5             61.3833        -1.15384e+06         3.87769e+07
   18.47             40421.2             61.4873        -1.15406e+06         3.87739e+07
   18.49             40451.9             61.5917        -1.15427e+06         3.87709e+07
   18.51             40482.5             61.6963        -1.15447e+06         3.87678e+07
   18.53             40513.1             61.8013        -1.15468e+06         3.87646e+07
   18.55             40543.6             61.9066        -1.15488e+06         3.87613e+07
   18.57               40574             62.0122        -1.15508e+06          3.8758e+07
   18.59             40604.3              62.118        -1.15528e+06         3.87545e+07
   18.61             40634.6             62.2241        -1.15547e+06         3.87511e+07
   18.63             40664.8             62.3305        -1.15566e+06         3.87475e+07
   18.65             40694.8             62.4372        -1.15584e+06         3.87439e+07
   18.67             40724.8              62.544        -1.15603e+06         3.87402e+07
   18.69             40754.8             62.6511         -1.1562e+06         3.87364e+07
   18.71             40784.6             62.7585        -1.15638e+06         3.87325e+07
   18.73             40814.3              62.866        -1.15655e+06         3.87286e+07
   18.75               40844             62.9738        -1.15672e+06         3.87246e+07
   18.77             40873.5             63.0817        -1.15689e+06         3.87205e+07
   18.79             40902.9             63.1899        -1.15705e+06         3.87164e+07
   18.81             40932.3             63.2982        -1.15721e+06         3.87121e+07
   18.83             40961.5             63.4067        -1.15736e+06         3.87078e+07
   18.85             40990.6             63.5153        -1.15751e+06         3.87034e+07
   18.87             41019.6             63.6242        -1.15766e+06          3.8699e+07
   18.89             41048.5             63.7331        -1.15781e+06         3.86944e+07
   18.91             41077.3             63.8422        -1.15795e+06         3.86898e+07
   18.93               41106             63.9514        -1.15808e+06         3.86851e+07
   18.95             41134.5             64.0608        -1.15822e+06         3.86803e+07
   18.97             41162.9             64.1702        -1.15835e+06         3.86755e+07
   18.99             41191.2             64.2798        -1.15847e+06         3.86705e+07
   19.01             41219.3             64.3895        -1.15859e+06         3.86655e+07
   19.03             41247.4             64.4992        -1.15871e+06         3.86604e+07
   19.05             41275.2             64.6091        -1.15882e+06         3.86552e+07
   19.07               41303              64.719        -1.15893e+06         3.86499e+07
   19.09             41330.6              64.829        -1.15904e+06         3.86446e+07
   19.11             41358.1              64.939        -1.15914e+06         3.86391e+07
   19.13             41385.4             65.0492        -1.15924e+06         3.86336e+07
   19.15             41412.6             65.1593        -1.15934e+06          3.8628e+07
   19.17             41439.6             65.2695        -1.15943e+06         3.86223e+07
   19.19             41466.5             65.3798        -1.15951e+06         3.86166e+07
   19.21             41493.2               65.49        -1.15959e+06         3.86107e+07
   19.23             41519.7             65.6003        -1.15967e+06         3.86047e+07
   19.25             41546.1             65.7107        -1.15974e+06         3.85987e+07
   19.27             41572.4              65.821        -1.15981e+06         3.85926e+07
   19.29             41598.4             65.9313        -1.15988e+06         3.85864e+07
   19.31             41624.3             66.0417        -1.15994e+06         3.85801e+07
   19.33               41650              66.152        -1.15999e+06         3.85737e+07
   19.35             41675.6             66.2623        -1.16004e+06         3.85672e+07
   19.37               41701             66.3726        -1.16009e+06         3.85606e+07
   19.39             41726.2             66.4829        -1.16013e+06         3.85539e+07
   19.41             41751.2             66.5931        -1.16017e+06         3.85472e+07
   19.43               41776             66.7033        -1.16021e+06         3.85403e+07
   19.45             41800.6             66.8135        -1.16023e+06         3.85333e+07
   19.47             41825.1             66.9236        -1.16026e+06         3.85263e+07
   19.49             41849.3             67.0337        -1.16028e+06         3.85192e+07
   19.51             41873.4             67.1437        -1.16029e+06         3.85119e+07
   19.53             41897.2             67.2537         -1.1603e+06         3.85046e+07
   19.55             41920.9             67.3636        -1.16031e+06         3.84971e+07
   19.57             41944.3             67.4734        -1.16031e+06         3.84896e+07
   19.59             41967.6             67.5831         -1.1603e+06         3.84819e+07
   19.61             41990.6             67.6928        -1.16029e+06         3.84742e+07
   19.63             42013.5             67.8024        -1.16028e+06         3.84664e+07
   19.65             42036.1             67.9119        -1.16026e+06         3.84584e+07
   19.67             42058.5             68.0213        -1.16023e+06         3.84504e+07
   19.69             42080.6             68.1306         -1.1602e+06         3.84422e+07
   19.71             42102.6             68.2398        -1.16017e+06         3.84339e+07
   19.73             42124.3             68.3489        -1.16013e+06         3.84256e+07
   19.75             42145.8             68.4579        -1.16008e+06         3.84171e+07
   19.77               42167             68.5668        -1.16003e+06         3.84085e+07
   19.79             42188.1             68.6755        -1.15998e+06         3.83998e+07
   19.81             42208.8             68.7842        -1.15991e+06          3.8391e+07
   19.83             42229.4             68.8927        -1.15985e+06         3.83821e+07
   19.85             42249.7             69.0011        -1.15977e+06          3.8373e+07
   19.87             42269.8             69.1093         -1.1597e+06         3.83639e+07
   19.89             42289.6             69.2174        -1.15961e+06         3.83546e+07
   19.91             42309.1             69.3254        -1.15952e+06         3.83452e+07
   19.93             42328.4             69.4332        -1.15943e+06         3.83357e+07
   19.95             42347.5             69.5409        -1.15933e+06         3.83261e+07
   19.97             42366.2             69.6484        -1.15922e+06         3.83164e+07
   19.99             42384.8             69.7558        -1.15911e+06         3.83065e+07
